Begin Header
                    instrument        =Fluke 5730A
                    interval          =90 Days
                    confidence        =2.58 sigma
End Header

# $Revision: 20701 $
#
# Sources:
# Product Specifications 5730A, Revision D, 09/30/2013
# Product Specifications 52120A, Revision E, 12/05/2012
# 7405A-4207T AC Divider Instruction Sheet, PN 881826, February 1992
#
# Stability specifications: +/- 1 degC, 24 Hours

# ============================================================================
# DC Voltage Specifications (DC Zeros calibration required every 30 days)

# Voltage (V)                          Not Used                   Tol (%)      Floor     Resolution
# ------------------------------------ ------------------------ ------------------------------------

Mode: 220mV DC
       -219.99999E-3      219.99999E-3          NA          NA      700.0E-6    500.0E-9       10E-9
Mode: 2.2V DC
          -2.1999999         2.1999999          NA          NA      400.0E-6    800.0E-9      100E-9
Mode: 11V DC
          -10.999999         10.999999          NA          NA      300.0E-6      3.0E-6        1E-6
Mode: 22V DC
          -21.999999         21.999999          NA          NA      300.0E-6      5.0E-6        1E-6
Mode: 220V DC
          -219.99999         219.99999          NA          NA      400.0E-6     50.0E-6       10E-6
Mode: 1100V DC
               -1100              1100          NA          NA      600.0E-6    500.0E-6      100E-6

# Voltage (V)                          Not Used                   Tol (%)      Floor     Resolution
# ------------------------------------ ------------------------ ------------------------------------

Mode: 220mV DC Linearity
       -219.99999E-3      219.99999E-3          NA          NA      100.0E-6           1       10E-9

Mode: 2.2V DC Linearity
          -2.1999999         2.1999999          NA          NA      100.0E-6           1      100E-9

Mode: 11V DC Linearity
          -10.999999         10.999999          NA          NA       30.0E-6      300E-3        1E-6

Mode: 22V DC Linearity
          -21.999999         21.999999          NA          NA       30.0E-6      300E-3        1E-6

Mode: 220V DC Linearity
          -219.99999         219.99999          NA          NA      100.0E-6           1       10E-6

Mode: 1100V DC Linearity
               -1100              1100          NA          NA      100.0E-6           1      100E-6

# Voltage (V)                          Not Used                   Tol (%)      Floor     Resolution
# ------------------------------------ ------------------------ ------------------------------------

Mode: 220mV DC Stability
       -219.99999E-3      219.99999E-3          NA          NA       30.0E-6    300.0E-9       10E-9

Mode: 2.2V DC Stability
          -2.1999999         2.1999999          NA          NA       30.0E-6      1.0E-6      100E-9

Mode: 11V DC Stability
          -10.999999         10.999999          NA          NA       30.0E-6      2.5E-6        1E-6

Mode: 22V DC Stability
          -21.999999         21.999999          NA          NA       40.0E-6      5.0E-6        1E-6

Mode: 220V DC Stability
          -219.99999         219.99999          NA          NA       50.0E-6     40.0E-6       10E-6

Mode: 1100V DC Stability
               -1100              1100          NA          NA       50.0E-6    200.0E-6      100E-6

# ============================================================================
# AC Voltage Specifications

Mode: Volts AC

# Voltage (V)                          Frequency (Hz)             Tol (%)      Floor     Resolution
# ------------------------------------ ------------------------ ------------------------------------
              220E-6       2.199999E-3           10       19.99      27.0E-3      5.0E-6        1E-9
              220E-6       2.199999E-3           20       39.99      10.5E-3      5.0E-6        1E-9
              220E-6       2.199999E-3           40       20E+3       9.0E-3      5.0E-6        1E-9
              220E-6       2.199999E-3        20E+3       50E+3      23.0E-3      5.0E-6        1E-9
              220E-6       2.199999E-3        50E+3      100E+3      54.0E-3      6.0E-6        1E-9
              220E-6       2.199999E-3       100E+3      300E+3     120.0E-3     12.0E-6        1E-9
              220E-6       2.199999E-3       300E+3      500E+3     150.0E-3     25.0E-6        1E-9
              220E-6       2.199999E-3       500E+3        1E+6     310.0E-3     25.0E-6        1E-9
              220E-6       2.199999E-3         1E+6      1.2E+6           NA          NA        1E-9

              2.2E-3       21.99999E-3           10       19.99      27.0E-3      5.0E-6       10E-9
              2.2E-3       21.99999E-3           20       39.99      10.5E-3      5.0E-6       10E-9
              2.2E-3       21.99999E-3           40       20E+3       9.0E-3      5.0E-6       10E-9
              2.2E-3       21.99999E-3        20E+3       50E+3      23.0E-3      5.0E-6       10E-9
              2.2E-3       21.99999E-3        50E+3      100E+3      54.0E-3      6.0E-6       10E-9
              2.2E-3       21.99999E-3       100E+3      300E+3     120.0E-3     12.0E-6       10E-9
              2.2E-3       21.99999E-3       300E+3      500E+3     150.0E-3     25.0E-6       10E-9
              2.2E-3       21.99999E-3       500E+3        1E+6     310.0E-3     25.0E-6       10E-9
              2.2E-3       21.99999E-3         1E+6      1.2E+6           NA          NA       10E-9

               22E-3       219.9999E-3           10       19.99      27.0E-3     15.0E-6      100E-9
               22E-3       219.9999E-3           20       39.99      10.5E-3      8.0E-6      100E-9
               22E-3       219.9999E-3           40       20E+3       6.6E-3      8.0E-6      100E-9
               22E-3       219.9999E-3        20E+3       50E+3      14.0E-3      8.0E-6      100E-9
               22E-3       219.9999E-3        50E+3      100E+3      38.0E-3     20.0E-6      100E-9
               22E-3       219.9999E-3       100E+3      300E+3      70.0E-3     25.0E-6      100E-9
               22E-3       219.9999E-3       300E+3      500E+3     150.0E-3     30.0E-6      100E-9
               22E-3       219.9999E-3       500E+3        1E+6     290.0E-3     60.0E-6      100E-9
               22E-3       219.9999E-3         1E+6      1.2E+6           NA          NA      100E-9

                0.22          2.199999           10       19.99      27.0E-3     50.0E-6        1E-6
                0.22          2.199999           20       39.99      10.0E-3     20.0E-6        1E-6
                0.22          2.199999           40       20E+3       4.6E-3     10.0E-6        1E-6
                0.22          2.199999        20E+3       50E+3       7.7E-3     12.0E-6        1E-6
                0.22          2.199999        50E+3      100E+3       9.7E-3     40.0E-6        1E-6
                0.22          2.199999       100E+3      300E+3      37.0E-3    100.0E-6        1E-6
                0.22          2.199999       300E+3      500E+3     110.0E-3    250.0E-6        1E-6
                0.22          2.199999       500E+3        1E+6     180.0E-3    400.0E-6        1E-6
                0.22          2.199999         1E+6      1.2E+6           NA          NA        1E-6

                 2.2          21.99999           10       19.99      27.0E-3    500.0E-6       10E-6
                 2.2          21.99999           20       39.99      10.0E-3    200.0E-6       10E-6
                 2.2          21.99999           40       20E+3       4.6E-3     70.0E-6       10E-6
                 2.2          21.99999        20E+3       50E+3       7.7E-3    120.0E-6       10E-6
                 2.2          21.99999        50E+3      100E+3       9.7E-3    250.0E-6       10E-6
                 2.2          21.99999       100E+3      300E+3      29.0E-3    800.0E-6       10E-6
                 2.2          21.99999       300E+3      500E+3     110.0E-3      2.5E-3       10E-6
                 2.2          21.99999       500E+3        1E+6     160.0E-3      4.0E-3       10E-6
                 2.2          21.99999         1E+6      1.2E+6           NA          NA       10E-6

                  22          219.9999           10       19.99      27.0E-3      5.0E-3      100E-6
                  22          219.9999           20       39.99      10.0E-3      2.0E-3      100E-6
                  22          219.9999           40       20E+3       6.0E-3    700.0E-6      100E-6
                  22          219.9999        20E+3       50E+3       9.5E-3      1.2E-3      100E-6
                  22          219.9999        50E+3      100E+3      17.0E-3      3.0E-3      100E-6
                  22          219.9999       100E+3      300E+3     100.0E-3     20.0E-3      100E-6
                  22          219.9999       300E+3      500E+3     520.0E-3     50.0E-3      100E-6
                  22          219.9999       500E+3        1E+6     900.0E-3    100.0E-3      100E-6
                  22          219.9999         1E+6      1.2E+6           NA          NA      100E-6

                 220               250           15       49.99      32.0E-3     20.0E-3        1E-3
                 220              1100           50        1E+3       7.5E-3      4.0E-3        1E-3

Mode: Volts AC Stability

# Voltage (V)                          Frequency (Hz)             Tol (%)      Floor     Resolution
# ------------------------------------ ------------------------ ------------------------------------

               0.022         0.2199999           10       19.99     15.00E-3     20.0E-6      100E-9
               0.022         0.2199999           20       39.99      8.00E-3     15.0E-6      100E-9
               0.022         0.2199999           40       20E+3      1.20E-3      2.0E-6      100E-9
               0.022         0.2199999        20E+3       50E+3      1.00E-3      2.0E-6      100E-9
               0.022         0.2199999        50E+3      100E+3      1.00E-3      2.0E-6      100E-9
               0.022         0.2199999       100E+3      300E+3      2.00E-3      4.0E-6      100E-9
               0.022         0.2199999       300E+3      500E+3     10.00E-3     10.0E-6      100E-9
               0.022         0.2199999       500E+3        1E+6     20.00E-3     20.0E-6      100E-9
               0.022         0.2199999         1E+6      1.2E+6           NA          NA      100E-9

                0.22          2.199999           10       19.99     15.00E-3     20.0E-6        1E-6
                0.22          2.199999           20       39.99      8.00E-3     15.0E-6        1E-6
                0.22          2.199999           40       20E+3      1.20E-3      4.0E-6        1E-6
                0.22          2.199999        20E+3       50E+3      1.50E-3      5.0E-6        1E-6
                0.22          2.199999        50E+3      100E+3      1.50E-3      5.0E-6        1E-6
                0.22          2.199999       100E+3      300E+3      3.00E-3     10.0E-6        1E-6
                0.22          2.199999       300E+3      500E+3      7.00E-3     20.0E-6        1E-6
                0.22          2.199999       500E+3        1E+6     15.00E-3     50.0E-6        1E-6
                0.22          2.199999         1E+6      1.2E+6           NA          NA        1E-6

                 2.2          21.99999           10       19.99     15.00E-3     20.0E-6       10E-6
                 2.2          21.99999           20       39.99      8.00E-3     15.0E-6       10E-6
                 2.2          21.99999           40       20E+3      1.20E-3      8.0E-6       10E-6
                 2.2          21.99999        20E+3       50E+3      1.50E-3     10.0E-6       10E-6
                 2.2          21.99999        50E+3      100E+3      1.50E-3     10.0E-6       10E-6
                 2.2          21.99999       100E+3      300E+3      3.00E-3     15.0E-6       10E-6
                 2.2          21.99999       300E+3      500E+3      7.00E-3    100.0E-6       10E-6
                 2.2          21.99999       500E+3        1E+6     15.00E-3    100.0E-6       10E-6
                 2.2          21.99999         1E+6      1.2E+6           NA          NA       10E-6

                  22          219.9999           10       19.99     15.00E-3    200.0E-6      100E-6
                  22          219.9999           20       39.99      8.00E-3    150.0E-6      100E-6
                  22          219.9999           40       20E+3      1.20E-3     80.0E-6      100E-6
                  22          219.9999        20E+3       50E+3      1.50E-3    100.0E-6      100E-6
                  22          219.9999        50E+3      100E+3      1.50E-3    100.0E-6      100E-6
                  22          219.9999       100E+3      300E+3      3.00E-3    400.0E-6      100E-6
                  22          219.9999       300E+3      500E+3     10.00E-3     10.0E-3      100E-6
                  22          219.9999       500E+3        1E+6     20.00E-3     20.0E-3      100E-6
                  22          219.9999         1E+6      1.2E+6           NA          NA      100E-6

                 220               250           15       49.99     15.00E-3   500.00E-6        1E-3
                 220              1100           50      1.0E+3      2.00E-3   500.00E-6        1E-3

Mode: Volts AC 5725A

# Output (V)                           Frequency (Hz)             Tol (%)      Floor     Resolution
# ------------------------------------ ------------------------ ------------------------------------
                 220              1100           40        1E+3       8.0E-3        4E-3        1E-3
                 220              1100         1E+3       20E+3      12.5E-3        6E-3        1E-3
                 220              1100        20E+3       30E+3      36.0E-3       11E-3        1E-3
                 220               750        30E+3       50E+3      36.0E-3       11E-3        1E-3
                 220               750        50E+3      100E+3     130.0E-3       45E-3        1E-3

# ============================================================================
# Resistance Specifications
#
# Ranges represent maximum difference of characterized to nominal value.

Mode: Ohms

# Resistance (Ohms)                    Not Used                   Tol (%)      Floor     Resolution
# ------------------------------------ ------------------------ ------------------------------------
                   0                 0          NA          NA             0       50E-6         NA
             0.99950           1.00050          NA          NA       9.50E-3           0         NA
             1.89905           1.90095          NA          NA       9.50E-3           0         NA
             9.99700          10.00300          NA          NA       2.50E-3           0         NA
            18.99430          19.00570          NA          NA       2.50E-3           0         NA
            99.98500         100.01500          NA          NA       1.10E-3           0         NA
           189.97150         190.02850          NA          NA       1.10E-3           0         NA
           999.85000       1.000150E+3          NA          NA     720.00E-6           0         NA
         1.899715E+3       1.900285E+3          NA          NA     720.00E-6           0         NA
         9.998500E+3      10.001500E+3          NA          NA     700.00E-6           0         NA
        18.997150E+3      19.002850E+3          NA          NA     700.00E-6           0         NA
        99.985000E+3     100.015000E+3          NA          NA     800.00E-6           0         NA
       189.971500E+3     190.028500E+3          NA          NA       1.00E-3           0         NA
       999.800000E+3       1.000200E+6          NA          NA       1.40E-3           0         NA
         1.899620E+6       1.900380E+6          NA          NA       1.70E-3           0         NA
         9.997000E+6      10.003000E+6          NA          NA       3.70E-3           0         NA
        18.994300E+6      19.005700E+6          NA          NA       4.70E-3           0         NA
        99.950000E+6     100.050000E+6          NA          NA      11.00E-3           0         NA

Mode: 2-Wire Adder Active Comp

# Resistance (Ohms)                    Lead Resistance (Ohms)     Tol (%)      Floor     Resolution
# ------------------------------------ ------------------------ ------------------------------------
                   0                 0          0.1         0.1            0      2.0E-3         NA
             0.99950           1.00050          0.1         0.1            0      2.0E-3         NA
             1.89905           1.90095          0.1         0.1            0      2.0E-3         NA
             9.99700          10.00300          0.1         0.1            0      2.0E-3         NA
            18.99430          19.00570          0.1         0.1            0      2.0E-3         NA
            99.98500         100.01500          0.1         0.1            0      2.0E-3         NA
           189.97150         190.02850          0.1         0.1            0      2.0E-3         NA
           999.85000       1.000150E+3          0.1         0.1            0     10.0E-3         NA
         1.899715E+3       1.900285E+3          0.1         0.1            0     10.0E-3         NA
         9.998500E+3      10.001500E+3          0.1         0.1            0     50.0E-3         NA
        18.997150E+3      19.002850E+3          0.1         0.1            0    100.0E-3         NA

                   0                 0            1           1            0      4.0E-3         NA
             0.99950           1.00050            1           1            0      4.0E-3         NA
             1.89905           1.90095            1           1            0      4.0E-3         NA
             9.99700          10.00300            1           1            0      4.0E-3         NA
            18.99430          19.00570            1           1            0      4.0E-3         NA
            99.98500         100.01500            1           1            0      4.0E-3         NA
           189.97150         190.02850            1           1            0      4.0E-3         NA
           999.85000       1.000150E+3            1           1            0     15.0E-3         NA
         1.899715E+3       1.900285E+3            1           1            0     15.0E-3         NA
         9.998500E+3      10.001500E+3            1           1            0     60.0E-3         NA
        18.997150E+3      19.002850E+3            1           1            0    120.0E-3         NA

# The purpose of these Current Derating Factor tables is to return the Error in Ohms.
# In the derating formulas found in the 5730A specifications, everything to the right
# of the "K" is handled within the 5730A FSC.

Mode: Current Derating Factor 2-Wire Comp I<IL
# Error = K(IL - I) / (IL x I)

# Resistance (Ohms)                    Not Used                   Tol (%)      Floor     Resolution
# ------------------------------------ ------------------------ ------------------------------------
                   0                 0          NA          NA             0      4.4E-3         NA
             0.99950           1.00050          NA          NA             0      4.4E-3         NA
             1.89905           1.90095          NA          NA             0      4.4E-3         NA
             9.99700          10.00300          NA          NA             0      4.4E-3         NA
            18.99430          19.00570          NA          NA             0      4.4E-3         NA
            99.98500         100.01500          NA          NA             0      4.4E-3         NA
           189.97150         190.02850          NA          NA             0      4.4E-3         NA
           999.85000       1.000150E+3          NA          NA             0      4.4E-3         NA
         1.899715E+3       1.900285E+3          NA          NA             0      4.4E-3         NA
         9.998500E+3      10.001500E+3          NA          NA             0           5         NA
        18.997150E+3      19.002850E+3          NA          NA             0           5         NA

Mode:  Current Derating Factor 4-Wire I<IL

# Resistance (Ohms)                    Not Used                   Tol (%)      Floor     Resolution
# ------------------------------------ ------------------------ ------------------------------------

# Error = K(IL - I) / (IL x I)
                   0                 0          NA          NA             0    300.0E-6         NA

# Error in ppm = K(I^2 - IU^2)
              0.9995            1.0005          NA          NA       30.0E-3           0         NA
             1.89905           1.90095          NA          NA       16.0E-3           0         NA
               9.997            10.003          NA          NA        3.0E-3           0         NA
             18.9943           19.0057          NA          NA        1.6E-3           0         NA
              99.985           100.015          NA          NA      350.0E-6           0         NA
            189.9715          190.0285          NA          NA      250.0E-6           0         NA
              999.85        1.00015E+3          NA          NA       40.0E-6           0         NA
         1.899715E+3       1.900285E+3          NA          NA       40.0E-6           0         NA
           9.9985E+3        10.0015E+3          NA          NA        5.0E-3           0         NA
         18.99715E+3       19.00285E+3          NA          NA        5.0E-3           0         NA
           99.985E+3        100.015E+3          NA          NA      750.0E-6           0         NA
         189.9715E+3       190.0285E+3          NA          NA      400.0E-6           0         NA
            999.8E+3         1.0002E+6          NA          NA      100.0E-6           0         NA
          1.89962E+6        1.90038E+6          NA          NA       53.0E-6           0         NA
            9.997E+6         10.003E+6          NA          NA       20.0E-6           0         NA
          18.9943E+6        19.0057E+6          NA          NA       53.0E-6           0         NA
            99.95E+6         100.05E+6          NA          NA       10.0E-6           0         NA

Mode:  Current Derating Factor 4-Wire IU<I<IMAX
# Error in ppm = K(I^2 - IU^2)

# Resistance (Ohms)                    Not Used                   Tol (%)      Floor     Resolution
# ------------------------------------ ------------------------ ------------------------------------
                   0                 0          NA          NA             0           0         NA
              0.9995            1.0005          NA          NA        4.0E-9           0         NA
             1.89905           1.90095          NA          NA       15.0E-9           0         NA
               9.997            10.003          NA          NA      160.0E-9           0         NA
             18.9943           19.0057          NA          NA      300.0E-9           0         NA
              99.985           100.015          NA          NA        1.0E-6           0         NA
            189.9715          190.0285          NA          NA        1.9E-6           0         NA
              999.85        1.00015E+3          NA          NA       10.0E-6           0         NA
         1.899715E+3       1.900285E+3          NA          NA       19.0E-6           0         NA
           9.9985E+3        10.0015E+3          NA          NA      200.0E-6           0         NA
         18.99715E+3       19.00285E+3          NA          NA      380.0E-6           0         NA
           99.985E+3        100.015E+3          NA          NA        2.0E-9           0         NA
         189.9715E+3       190.0285E+3          NA          NA        3.8E-9           0         NA
            999.8E+3         1.0002E+6          NA          NA       15.0E-9           0         NA
          1.89962E+6        1.90038E+6          NA          NA       29.0E-9           0         NA
            9.997E+6         10.003E+6          NA          NA      100.0E-9           0         NA
          18.9943E+6        19.0057E+6          NA          NA      190.0E-9           0         NA
            99.95E+6         100.05E+6          NA          NA             0           0         NA

# ============================================================================
# DC Current Specifications
#
# For 220 mA range >100 mA and 2.2 A range > 1 A adder is automatically
# computed and applied by 5730A FSC accuracy computation.
#
# Uncertainty specifications for 220 uA and 2.2 mA ranges are increased by a
# factor of 1.3 by 5730A FSC accuracy computation when supplied through 5725A
# terminals.

# Current (A)                          Not Used                   Tol (%)      Floor     Resolution
# ------------------------------------ ------------------------ ------------------------------------

Mode: 220uA DC
        -219.9999E-6       219.9999E-6          NA          NA        4.2E-3      7.0E-9     100E-12

Mode: 2.2mA DC
        -2.199999E-3       2.199999E-3          NA          NA        3.5E-3      8.0E-9        1E-9

Mode: 22mA DC
        -21.99999E-3       21.99999E-3          NA          NA        3.5E-3     50.0E-9       10E-9

# The 5730A FSC applies this adder: +/- 200 x I^2 ppm for > 100 mA on 220 mA range
Mode: 220mA DC
        -219.9999E-3       219.9999E-3          NA          NA        4.5E-3    800.0E-9      100E-9

# The 5730A FSC applies this adder: +/- 10 x I^2 ppm for > 1 A on 2.2 A range
Mode: 2.2A DC
                -2.2               2.2          NA          NA        7.0E-3     15.0E-6        1E-6

Mode: 11A DC 5725A
                 -11                11          NA          NA       34.0E-3    480.0E-6       10E-6

# Current (A)                          Not Used                   Tol (%)      Floor     Resolution
# ------------------------------------ ------------------------ ------------------------------------

Mode: 220uA DC Stability
        -219.9999E-6       219.9999E-6          NA          NA      500.0E-6      1.0E-9     100E-12

Mode: 2.2mA DC Stability
        -2.199999E-3       2.199999E-3          NA          NA      500.0E-6      5.0E-9        1E-9

Mode: 22mA DC Stability
        -21.99999E-3       21.99999E-3          NA          NA      500.0E-6     50.0E-9       10E-9

Mode: 220mA DC Stability
        -219.9999E-3       219.9999E-3          NA          NA      800.0E-6    300.0E-9      100E-9

Mode: 2.2A DC Stability
                -2.2               2.2          NA          NA      900.0E-6      7.0E-6        1E-6

Mode: 11A DC Stability 5725A
                 -11                11          NA          NA        2.5E-3    100.0E-6       10E-6

# Burden voltage adder is automatically added to the DC current uncertainty
# when BurdenVoltage is specified in the 5730A FSC statement, and it is
# greater than 0.5 V.

# Current (A)                          Not Used                   Tol (%)      Floor     Resolution
# ------------------------------------ ------------------------ ------------------------------------

Mode: 220uA DC BurdenVoltageAdder
        -219.9999E-6       219.9999E-6          NA          NA             0   200.0E-12     100E-12

Mode: 2.2mA DC BurdenVoltageAdder
        -2.199999E-3       2.199999E-3          NA          NA             0   200.0E-12        1E-9

Mode: 22mA DC BurdenVoltageAdder
        -21.99999E-3       21.99999E-3          NA          NA             0     10.0E-9       10E-9

Mode: 220mA DC BurdenVoltageAdder
        -219.9999E-3       219.9999E-3          NA          NA             0    100.0E-9      100E-9

Mode: 2.2A DC BurdenVoltageAdder
                -2.2               2.2          NA          NA             0      2.0E-6        1E-6

Mode: 11A DC BurdenVoltageAdder 5725A
                 -11                11          NA          NA             0         0.0       10E-6

# ============================================================================
# AC Current Specifications
#
# Uncertainty specifications for 220 uA and 2.2 mA ranges are increased by a
# factor of 1.3 + 2 uA by 5730A FSC accuracy computation when supplied through
# 5725A terminals.

Mode: Amps AC

# Current (A)                          Frequency (Hz)             Tol (%)      Floor     Resolution
# ------------------------------------ ------------------------ ------------------------------------

                9E-6        219.999E-6           10       19.99      28.0E-3     20.0E-9        1E-9
                9E-6        219.999E-6           20       39.99      18.0E-3     12.0E-9        1E-9
                9E-6        219.999E-6           40        1E+3      11.7E-3     10.0E-9        1E-9
                9E-6        219.999E-6         1E+3        5E+3      32.0E-3     15.0E-9        1E-9
                9E-6        219.999E-6         5E+3       10E+3     110.0E-3     80.0E-9        1E-9

              220E-6        2.19999E-3           10       19.99      28.0E-3     50.0E-9       10E-9
              220E-6        2.19999E-3           20       39.99      18.0E-3     40.0E-9       10E-9
              220E-6        2.19999E-3           40        1E+3      11.7E-3     40.0E-9       10E-9
              220E-6        2.19999E-3         1E+3        5E+3      22.0E-3    130.0E-9       10E-9
              220E-6        2.19999E-3         5E+3       10E+3     110.0E-3    800.0E-9       10E-9

              2.2E-3        21.9999E-3           10       19.99      28.0E-3    500.0E-9      100E-9
              2.2E-3        21.9999E-3           20       39.99      18.0E-3    400.0E-9      100E-9
              2.2E-3        21.9999E-3           40        1E+3      11.7E-3    400.0E-9      100E-9
              2.2E-3        21.9999E-3         1E+3        5E+3      22.0E-3    700.0E-9      100E-9
              2.2E-3        21.9999E-3         5E+3       10E+3     110.0E-3      6.0E-6      100E-9

               22E-3        219.999E-3           10       19.99      28.0E-3      5.0E-6        1E-6
               22E-3        219.999E-3           20       39.99      18.0E-3      4.0E-6        1E-6
               22E-3        219.999E-3           40        1E+3      11.7E-3      3.0E-6        1E-6
               22E-3        219.999E-3         1E+3        5E+3      22.0E-3      4.0E-6        1E-6
               22E-3        219.999E-3         5E+3       10E+3     110.0E-3     12.0E-6        1E-6

                0.22               2.2           10       19.99          NA          NA        10E-6
                0.22               2.2           20        1E+3      28.0E-3     40.0E-6       10E-6
                0.22               2.2         1E+3        5E+3      46.0E-3    100.0E-6       10E-6
                0.22               2.2         5E+3       10E+3     700.0E-3    200.0E-6       10E-6

Mode: Amps AC 5725A

# Current (A)                          Frequency (Hz)             Tol (%)      Floor     Resolution
# ------------------------------------ ------------------------ ------------------------------------

                   1                11           40        1E+3      40.0E-3    170.0E-6      100E-6
                   1                11         1E+3        5E+3      85.0E-3    380.0E-6      100E-6
                   1                11         5E+3       10E+3     330.0E-3    750.0E-6      100E-6

# Note, range selection is automatic when the 52120A is controlled by a 5730A.

Mode: Amps DC 52120A

# Current (A)                          Frequency (Hz)             Tol (%)      Floor     Resolution
# ------------------------------------ ------------------------ ------------------------------------
           -1.999999          1.999999          NA          NA         0.015    200.0E-6        1E-6
           -19.99999          19.99999          NA          NA         0.015      2.0E-3       10E-6
                -120               120          NA          NA         0.015     12.0E-3       10E-6

Mode: Amps DC Two 52120As

# Current (A)                          Frequency (Hz)             Tol (%)      Floor     Resolution
# ------------------------------------ ------------------------ ------------------------------------
           -3.999999          3.999999          NA          NA         0.015    400.0E-6        1E-6
           -39.99999          39.99999          NA          NA         0.015      4.0E-3       10E-6
                -240               240          NA          NA         0.015     24.0E-3      100E-6

Mode: Amps DC Three 52120As

# Current (A)                          Frequency (Hz)             Tol (%)      Floor     Resolution
# ------------------------------------ ------------------------ ------------------------------------
           -5.999999          5.999999          NA          NA         0.015    600.0E-6        1E-6
           -59.99999          59.99999          NA          NA         0.015      6.0E-3       10E-6
                -360               360          NA          NA         0.015     36.0E-3      100E-6

# The 5730A's accuracy contribution above 6 kHz was found to be insignificant.
Mode: Amps AC 52120A

# Current (A)                          Frequency (Hz)             Tol (%)      Floor     Resolution
# ------------------------------------ ------------------------ ------------------------------------
                 0.2          1.999999           10         850        0.011     60.0E-6        1E-6
                 0.2          1.999999          850        6E+3        0.052    100.0E-6        1E-6
                 0.2          1.999999         6E+3       10E+3            2     80.0E-3        1E-6

                   2          19.99999           10         850        0.011    600.0E-6       10E-6
                   2          19.99999          850        6E+3        0.052      1.0E-3       10E-6
                   2          19.99999         6E+3       10E+3            3    120.0E-3       10E-6

                  20               120           10         850        0.011      3.6E-3       10E-6
                  20               120          850        6E+3        0.052      6.0E-3       10E-6
                  20               120         6E+3       10E+3            4    900.0E-3       10E-6

Mode: Amps AC Two 52120As

# Current (A)                          Frequency (Hz)             Tol (%)      Floor     Resolution
# ------------------------------------ ------------------------ ------------------------------------
                 0.4          3.999999           10         850        0.011    120.0E-6        1E-6
                 0.4          3.999999          850        6E+3        0.052    200.0E-6        1E-6
                 0.4          3.999999         6E+3       10E+3            2    160.0E-3        1E-6

                   4          39.99999           10         850        0.011      1.2E-3       10E-6
                   4          39.99999          850        6E+3        0.052      2.0E-3       10E-6
                   4          39.99999         6E+3       10E+3            3    240.0E-3       10E-6

                  40               240           10         850        0.011      7.2E-3       10E-6
                  40               240          850        6E+3        0.052     12.0E-3       10E-6
                  40               240         6E+3       10E+3            4         1.8       10E-6

Mode: Amps AC Three 52120As

# Current (A)                          Frequency (Hz)             Tol (%)      Floor     Resolution
# ------------------------------------ ------------------------ ------------------------------------
                 0.6          5.999999           10         850        0.011    180.0E-6        1E-6
                 0.6          5.999999          850        6E+3        0.052    300.0E-6        1E-6
                 0.6          5.999999         6E+3       10E+3            2    240.0E-3        1E-6

                   6          59.99999           10         850        0.011      1.8E-3       10E-6
                   6          59.99999          850        6E+3        0.052      3.0E-3       10E-6
                   6          59.99999         6E+3       10E+3            3    360.0E-3       10E-6

                  60               360           10         850        0.011     10.8E-3       10E-6
                  60               360          850        6E+3        0.052     18.0E-3       10E-6
                  60               360         6E+3       10E+3            4         2.7       10E-6

# As noted in the specifications for the 52120A/COIL3KA and 52120A/COIL6KA:
# The specifications for these coils are at 99% confidence level and are the
# combined accuracy of the coil and a 52120A.
#
# Footnote [1] for the 52120A/COIL3KA:
# The inductance and mutual inductance of the 25 turn coil and clamp that is
# measured causes a frequency dependent compliance voltage across the coil.
# The length and configuration of the cables that connect the current to the
# coil also have an effect.  Maximum input current is 120 A input at
# approximately 100 Hz.  Maximum current input decreases to approximately
# 0.8 A at 10 kHz.

Mode: Amps DC 52120A/COIL3KA

# Effective Current (A)                Not Used                   Tol (%)      Floor     Resolution
# ------------------------------------ ------------------------ ------------------------------------
          -49.999975         49.999975          NA          NA           0.7       0.014       25E-6
          -499.99975         499.99975          NA          NA           0.7        0.14      250E-6
               -3000              3000          NA          NA           0.7        0.84      250E-6

Mode: Amps AC 52120A/COIL3KA

# Effective Current (A)                Frequency (Hz)             Tol (%)      Floor     Resolution
# ------------------------------------ ------------------------ ------------------------------------

# 2 A Range
                   5         49.999975           10          65          0.7       0.014       25E-6
                   5         49.999975           65         300          0.7       0.014       25E-6
                   5         49.999975          300        1E+3          0.7       0.014       25E-6
                   5         49.999975         1E+3        3E+3          0.8        0.02       25E-6
                   5         49.999975         3E+3        6E+3          1.5        0.02       25E-6
                   5                25         6E+3       10E+3          5.0        0.02       25E-6

# 20 A Range
# NOTE: The highest frequency output is unattainable (per footnote 1).
                  50         499.99975           10          65          0.7        0.14      250E-6
                  50         499.99975           65         300          0.7        0.14      250E-6
                  50         499.99975          300        1E+3          0.7        0.14      250E-6
                  50               300         1E+3        3E+3          0.8         0.2      250E-6
                  50                75         3E+3        6E+3          1.5         0.2      250E-6
                  50                25         6E+3       10E+3          5.0         0.2      250E-6

# 120 A Range
# NOTE: The THREE highest frequency outputs are unattainable (per footnote 1).
                 500              3000           10          65          0.7        0.84      250E-6
                 500              3000           65         300          0.7        0.84      250E-6
                 500              1000          300        1E+3          0.7        0.84      250E-6
                 500               300         1E+3        3E+3          0.8         1.2      250E-6
                 500                75         3E+3        6E+3          1.5         1.2      250E-6
                 500                25         6E+3       10E+3          5.0         1.2      250E-6

# Footnote [1] for the 52120A/COIL6KA:
# The inductance and mutual inductance of the 50 turn coil causes a
# frequency dependent compliance voltage across the coil.  Maximum frequency
# for 120 A input current is approximately 600 Hz.  Maximum current input
# decreases to approximately 13A at 10 kHz.

Mode: Amps DC 52120A/COIL6KA

# Effective Current (A)                Not Used                   Tol (%)      Floor     Resolution
# ------------------------------------ ------------------------ ------------------------------------
           -99.99995          99.99995          NA          NA           0.7       0.014       50E-6
           -999.9995          999.9995          NA          NA           0.7        0.14      500E-6
               -6000              6000          NA          NA           0.7        0.84      500E-6

Mode: Amps AC 52120A/COIL6KA

# Effective Current (A)                Frequency (Hz)             Tol (%)      Floor     Resolution
# ------------------------------------ ------------------------ ------------------------------------
                  10          99.99995           10          65          0.7       0.014       50E-6
                  10          99.99995           65         300          0.7       0.014       50E-6
                  10          99.99995          300        1E+3          0.7       0.014       50E-6
                  10          99.99995         1E+3        3E+3          0.8        0.02       50E-6
                  10          99.99995         3E+3        6E+3          1.5        0.02       50E-6
                  10          99.99995         6E+3       10E+3          5.0        0.02       50E-6

                 100          999.9995           10          65          0.7        0.14      500E-6
                 100          999.9995           65         300          0.7        0.14      500E-6
                 100          999.9995          300        1E+3          0.7        0.14      500E-6
                 100          999.9995         1E+3        3E+3          0.8         0.2      500E-6
                 100          999.9995         3E+3        6E+3          1.5         0.2      500E-6
                 100               650         6E+3       10E+3          5.0         0.2      500E-6

# NOTE: The highest frequency output is unattainable (per footnote 1).
                1000              6000           10          65          0.7        0.84      500E-6
                1000              6000           65         300          0.7        0.84      500E-6
                1000              6000          300        1E+3          0.7        0.84      500E-6
                1000              6000         1E+3        3E+3          0.8         1.2      500E-6
                1000              1250         3E+3        6E+3          1.5         1.2      500E-6
                1000               650         6E+3       10E+3          5.0         1.2      500E-6

# ============================================================================
# Frequency Accuracy (all functions)

Mode: Hertz

# Frequency (Hz)                       Output (V, A, or dBm)      Tol (%)      Floor     Resolution
# ------------------------------------ ------------------------ ------------------------------------
                  10             30E+6            0        6000         0.01           0         NA

Mode: Volts AC 5700-03 Absolute

# Absolute Uncertainty 30 Hz to 500 kHz
# Specifications apply to the end of the cable and 50 Ohm termination used for
# calibration.

# Voltage (V)                          Frequency (Hz)             Tol (%)      Floor     Resolution
# ------------------------------------ ------------------------ ------------------------------------
              300E-6        1.09999E-3           30      500E+3         0.50    400.0E-9       10E-9
              1.1E-3        3.29999E-3           30      500E+3         0.45      1.0E-6       10E-9
              3.3E-3        10.9999E-3           30      500E+3         0.35      4.0E-6      100E-9
               11E-3        32.9999E-3           30      500E+3         0.30     10.0E-6      100E-9
               33E-3        109.999E-3           30      500E+3         0.30     40.0E-6        1E-6
              110E-3        329.999E-3           30      500E+3         0.25    100.0E-6        1E-6
                0.33           1.09999           30      500E+3         0.25    400.0E-6       10E-6
                 1.1               3.5           30      500E+3         0.20    500.0E-6       10E-6

# ============================================================================
# Wideband AC Voltage (Option 5700-03) Specifications

# Flatness Specifications are at 99% Confidence, 2.58 Sigma.

Mode: Volts AC 5700-03 Flatness

# Voltage (V)                          Frequency (Hz)             Tol (%)      Floor     Resolution
# ------------------------------------ ------------------------ ------------------------------------
              300E-6        1.09999E-3           10       29.99         0.30           0       10E-9
              300E-6        1.09999E-3           30      119.99         0.10           0       10E-9
              300E-6        1.09999E-3          120   1.1999E+3         0.10           0       10E-9
              300E-6        1.09999E-3       1.2E+3   11.999E+3         0.10           0       10E-9
              300E-6        1.09999E-3      12.0E+3   119.99E+3         0.10           0       10E-9
              300E-6        1.09999E-3     120.0E+3   1.1999E+6         0.20        3E-6       10E-9
              300E-6        1.09999E-3       1.2E+6      2.0E+6         0.20        3E-6       10E-9
              300E-6        1.09999E-3       2.0E+6     11.9E+6         0.40        3E-6       10E-9
              300E-6        1.09999E-3      12.0E+6     20.0E+6         0.60        3E-6       10E-9
              300E-6        1.09999E-3      20.0E+6     30.0E+6         1.50       15E-6       10E-9

              1.1E-3        3.29999E-3           10       29.99         0.30           0       10E-9
              1.1E-3        3.29999E-3           30      119.99         0.10           0       10E-9
              1.1E-3        3.29999E-3          120   1.1999E+3         0.10           0       10E-9
              1.1E-3        3.29999E-3       1.2E+3   11.999E+3         0.10           0       10E-9
              1.1E-3        3.29999E-3      12.0E+3   119.99E+3         0.10           0       10E-9
              1.1E-3        3.29999E-3     120.0E+3   1.1999E+6         0.10        3E-6       10E-9
              1.1E-3        3.29999E-3       1.2E+6      2.0E+6         0.10        3E-6       10E-9
              1.1E-3        3.29999E-3       2.0E+6     11.9E+6         0.30        3E-6       10E-9
              1.1E-3        3.29999E-3      12.0E+6     20.0E+6         0.50        3E-6       10E-9
              1.1E-3        3.29999E-3      20.0E+6     30.0E+6         1.50        3E-6       10E-9

              3.3E-3               3.5           10       29.99         0.30           0       10E-6
              3.3E-3               3.5           30      119.99         0.10           0       10E-6
              3.3E-3               3.5          120   1.1999E+3         0.10           0       10E-6
              3.3E-3               3.5       1.2E+3   11.999E+3         0.10           0       10E-6
              3.3E-3               3.5      12.0E+3   119.99E+3         0.10           0       10E-6
              3.3E-3               3.5     120.0E+3   1.1999E+6         0.10        3E-6       10E-6
              3.3E-3               3.5       1.2E+6      2.0E+6         0.10        3E-6       10E-6
              3.3E-3               3.5       2.0E+6     11.9E+6         0.20        3E-6       10E-6
              3.3E-3               3.5      12.0E+6     20.0E+6         0.40        3E-6       10E-6
              3.3E-3               3.5      20.0E+6     30.0E+6         1.00        3E-6       10E-6

# ============================================================================
# The following Mode strings are only used when a 5700 or 5720 FSC is
# "Device Mapped" to a 5730A.
# ============================================================================

# ============================================================================
# Voltage Specifications
# DC Zeros calibration required every 30 days.

# DC Voltage Linearity

# Output (V)                           MOD1 (not used)            Tol (%)      Floor     Resolution
# ------------------------------------ ------------------------ ------------------------------------

Mode: 220mV Linearity
       -219.99999E-3      219.99999E-3          NA          NA      100.0E-6           1       10E-9

Mode: 2.2V Linearity
          -2.1999999         2.1999999          NA          NA      100.0E-6           1      100E-9

Mode: 11V Linearity
          -10.999999         10.999999          NA          NA       30.0E-6      300E-3        1E-6

Mode: 22V Linearity
          -21.999999         21.999999          NA          NA       30.0E-6      300E-3        1E-6

Mode: 220V Linearity
          -219.99999         219.99999          NA          NA      100.0E-6           1       10E-6

Mode: 1100V Linearity
               -1100              1100          NA          NA      100.0E-6           1      100E-6

# DC Voltage, Range Locked

# Output (V)                           MOD1 (not used)            Tol (%)      Floor     Resolution
# ------------------------------------ ------------------------ ------------------------------------

Mode: 220mV
       -219.99999E-3      219.99999E-3          NA          NA      700.0E-6    500.0E-9       10E-9
Mode: 2.2V
          -2.1999999         2.1999999          NA          NA      400.0E-6    800.0E-9      100E-9
Mode: 11V
          -10.999999         10.999999          NA          NA      300.0E-6      3.0E-6        1E-6
Mode: 22V
          -21.999999         21.999999          NA          NA      300.0E-6      5.0E-6        1E-6
Mode: 220V
          -219.99999         219.99999          NA          NA      400.0E-6     50.0E-6       10E-6
Mode: 1100V
               -1100              1100          NA          NA      600.0E-6    500.0E-6      100E-6

# DC Voltage, Autorange

# Output (V)                           MOD1 (not used)            Tol (%)      Floor     Resolution
# ------------------------------------ ------------------------ ------------------------------------

Mode: Volts
       -219.99999E-3      219.99999E-3          NA          NA      700.0E-6    500.0E-9       10E-9
          -2.1999999         2.1999999          NA          NA      400.0E-6    800.0E-9      100E-9
          -10.999999         10.999999          NA          NA      300.0E-6      3.0E-6        1E-6
          -21.999999         21.999999          NA          NA      300.0E-6      5.0E-6        1E-6
          -219.99999         219.99999          NA          NA      400.0E-6     50.0E-6       10E-6
               -1100              1100          NA          NA      600.0E-6    500.0E-6      100E-6

# AC Voltage < 22 mV with Fluke 7405A-4207 external AC divider.
# (less accurate than divider override, but less noise)

# Output (V)                           Frequency (Hz)             Tol (%)      Floor     Resolution
# ------------------------------------ ------------------------ ------------------------------------

# Calibrator: 2.2 V Range, Divider: 2 V Range
              220E-6              2E-3           50       10E+3       0.2500       10E-9        1E-9
              220E-6              2E-3        10E+3       20E+3       0.3000       10E-9        1E-9
              220E-6              2E-3        20E+3       50E+3       0.3001       12E-9        1E-9

# Calibrator: 2.2 V Range, Divider: 20 V Range
                2E-3       2.199999E-3           50       10E+3       0.2500       10E-9        1E-9
                2E-3       2.199999E-3        10E+3       20E+3       0.3000       10E-9        1E-9
                2E-3       2.199999E-3        20E+3       50E+3       0.3001       12E-9        1E-9

# Calibrator: 22 V Range, Divider: 20 V Range
              2.2E-3             20E-3           50       10E+3       0.2500       70E-9       10E-9
              2.2E-3             20E-3        10E+3       20E+3       0.3000       70E-9       10E-9
              2.2E-3             20E-3        20E+3       50E+3       0.3001      120E-9       10E-9

# All other values outside of specified Output and Frequency ranges:
              220E-6       21.99999E-3           10      1.2E+6          NA          NA          NA

# AC Voltage, no external divider.

# Output (V)                           Frequency (Hz)             Tol (%)      Floor     Resolution
# ------------------------------------ ------------------------ ------------------------------------
               22E-3       219.9999E-3           10       19.99     27.00E-3     15.0E-6      100E-9
               22E-3       219.9999E-3           20       39.99     10.50E-3      8.0E-6      100E-9
               22E-3       219.9999E-3           40       20E+3      6.60E-3      8.0E-6      100E-9
               22E-3       219.9999E-3        20E+3       50E+3     14.00E-3      8.0E-6      100E-9
               22E-3       219.9999E-3        50E+3      100E+3     38.00E-3     20.0E-6      100E-9
               22E-3       219.9999E-3       100E+3      300E+3     70.00E-3     25.0E-6      100E-9
               22E-3       219.9999E-3       300E+3      500E+3    150.00E-3     30.0E-6      100E-9
               22E-3       219.9999E-3       500E+3        1E+6    290.00E-3     60.0E-6      100E-9
               22E-3       219.9999E-3         1E+6      1.2E+6           NA         NA       100E-9

              220E-3          2.199999           10       19.99     27.00E-3     50.0E-6        1E-6
              220E-3          2.199999           20       39.99     10.00E-3     20.0E-6        1E-6
              220E-3          2.199999           40       20E+3      4.60E-3     10.0E-6        1E-6
              220E-3          2.199999      20.0E+3       50E+3      7.70E-3     12.0E-6        1E-6
              220E-3          2.199999      50.0E+3      100E+3      9.70E-3     40.0E-6        1E-6
              220E-3          2.199999     100.0E+3      300E+3     37.00E-3    100.0E-6        1E-6
              220E-3          2.199999     300.0E+3      500E+3    110.00E-3    250.0E-6        1E-6
              220E-3          2.199999     500.0E+3        1E+6    180.00E-3    400.0E-6        1E-6
              220E-3          2.199999       1.0E+6      1.2E+6           NA         NA         1E-6

                 2.2          21.99999           10       19.99     27.00E-3    500.0E-6       10E-6
                 2.2          21.99999           20       39.99     10.00E-3    200.0E-6       10E-6
                 2.2          21.99999           40       20E+3      4.60E-3     70.0E-6       10E-6
                 2.2          21.99999      20.0E+3       50E+3      7.70E-3    120.0E-6       10E-6
                 2.2          21.99999      50.0E+3      100E+3      9.70E-3    250.0E-6       10E-6
                 2.2          21.99999     100.0E+3      300E+3     29.00E-3    800.0E-6       10E-6
                 2.2          21.99999     300.0E+3      500E+3    110.00E-3      2.5E-3       10E-6
                 2.2          21.99999     500.0E+3        1E+6    160.00E-3      4.0E-3       10E-6
                 2.2          21.99999       1.0E+6      1.2E+6           NA         NA        10E-6

                  22          219.9999           10       19.99     27.00E-3      5.0E-3      100E-6
                  22          219.9999           20       39.99     10.00E-3      2.0E-3      100E-6
                  22          219.9999           40       20E+3      6.00E-3    700.0E-6      100E-6
                  22          219.9999      20.0E+3       50E+3      9.50E-3      1.2E-3      100E-6
                  22          219.9999      50.0E+3      100E+3     17.00E-3      3.0E-3      100E-6
                  22          219.9999     100.0E+3      300E+3    100.00E-3     20.0E-3      100E-6
                  22          219.9999     300.0E+3      500E+3    520.00E-3     50.0E-3      100E-6
                  22          219.9999     500.0E+3        1E+6    900.00E-3    100.0E-3      100E-6
                  22          219.9999       1.0E+6      1.2E+6           NA         NA       100E-6

                 220               250           15       49.99     32.00E-3     20.0E-3        1E-3
                 220              1100           50        1E+3      7.50E-3      4.0E-3        1E-3

Mode: Volts Stability

# DC Voltage Stability

# Output (V)                           MOD1 (not used)            Tol (%)      Floor     Resolution
# ------------------------------------ ------------------------ ------------------------------------

       -219.99999E-3      219.99999E-3          NA          NA       30.0E-6    300.0E-9       10E-9
          -2.1999999         2.1999999          NA          NA       30.0E-6      1.0E-6      100E-9
          -10.999999         10.999999          NA          NA       30.0E-6      2.5E-6        1E-6
          -21.999999         21.999999          NA          NA       40.0E-6      5.0E-6        1E-6
          -219.99999         219.99999          NA          NA       50.0E-6     40.0E-6       10E-6
               -1100              1100          NA          NA       50.0E-6    200.0E-6      100E-6

# AC Voltage Stability, no external divider

# Output (V)                           Frequency (Hz)             Tol (%)      Floor     Resolution
# ------------------------------------ ------------------------ ------------------------------------

               0.022         0.2199999           10       19.99     15.00E-3     20.0E-6      100E-9
               0.022         0.2199999           20       39.99      8.00E-3     15.0E-6      100E-9
               0.022         0.2199999           40       20E+3      1.20E-3      2.0E-6      100E-9
               0.022         0.2199999      20.0E+3       50E+3      1.00E-3      2.0E-6      100E-9
               0.022         0.2199999      50.0E+3      100E+3      1.00E-3      2.0E-6      100E-9
               0.022         0.2199999     100.0E+3      300E+3      2.00E-3      4.0E-6      100E-9
               0.022         0.2199999     300.0E+3      500E+3     10.00E-3     10.0E-6      100E-9
               0.022         0.2199999     500.0E+3        1E+6     20.00E-3     20.0E-6      100E-9
               0.022         0.2199999       1.0E+6      1.2E+6           NA          NA      100E-9

                0.22          2.199999           10       19.99     15.00E-3     20.0E-6        1E-6
                0.22          2.199999           20       39.99      8.00E-3     15.0E-6        1E-6
                0.22          2.199999           40       20E+3      1.20E-3      4.0E-6        1E-6
                0.22          2.199999      20.0E+3       50E+3      1.50E-3      5.0E-6        1E-6
                0.22          2.199999      50.0E+3      100E+3      1.50E-3      5.0E-6        1E-6
                0.22          2.199999     100.0E+3      300E+3      3.00E-3     10.0E-6        1E-6
                0.22          2.199999     300.0E+3      500E+3      7.00E-3     20.0E-6        1E-6
                0.22          2.199999     500.0E+3        1E+6     15.00E-3     50.0E-6        1E-6
                0.22          2.199999       1.0E+6      1.2E+6           NA          NA        1E-6

                 2.2          21.99999           10       19.99     15.00E-3     20.0E-6       10E-6
                 2.2          21.99999           20       39.99      8.00E-3     15.0E-6       10E-6
                 2.2          21.99999           40     20.0E+3      1.20E-3      8.0E-6       10E-6
                 2.2          21.99999        20E+3     50.0E+3      1.50E-3     10.0E-6       10E-6
                 2.2          21.99999        50E+3    100.0E+3      1.50E-3     10.0E-6       10E-6
                 2.2          21.99999       100E+3    300.0E+3      3.00E-3     15.0E-6       10E-6
                 2.2          21.99999       300E+3    500.0E+3      7.00E-3    100.0E-6       10E-6
                 2.2          21.99999       500E+3      1.0E+6     15.00E-3    100.0E-6       10E-6
                 2.2          21.99999         1E+6      1.2E+6           NA          NA       10E-6

                  22          219.9999           10       19.99     15.00E-3    200.0E-6      100E-6
                  22          219.9999           20       39.99      8.00E-3    150.0E-6      100E-6
                  22          219.9999           40     20.0E+3      1.20E-3     80.0E-6      100E-6
                  22          219.9999        20E+3     50.0E+3      1.50E-3    100.0E-6      100E-6
                  22          219.9999        50E+3    100.0E+3      1.50E-3    100.0E-6      100E-6
                  22          219.9999       100E+3    300.0E+3      3.00E-3    400.0E-6      100E-6
                  22          219.9999       300E+3    500.0E+3     10.00E-3     10.0E-3      100E-6
                  22          219.9999       500E+3      1.0E+6     20.00E-3     20.0E-3      100E-6
                  22          219.9999         1E+6      1.2E+6           NA          NA      100E-6

                 220               250           15       49.99     15.00E-3   500.00E-6        1E-3
                 220              1100           50      1.0E+3      2.00E-3   500.00E-6        1E-3

Mode: Volts O

# DC Voltage, divider override, < 220 mV.  Uses fixed 2.2 V Range.
#
# Output (V)                           Frequency (Hz)             Tol (%)      Floor     Resolution
# ------------------------------------ ------------------------ ------------------------------------
       -219.99999E-3      219.99999E-3          NA          NA      400.0E-6    800.0E-9      100E-9

# AC Voltage, divider override, < 22 mV (more accurate, but more noise).

              220E-6       2.199999E-3           10       19.99      27.0E-3      5.0E-6        1E-9
              220E-6       2.199999E-3           20       39.99      10.5E-3      5.0E-6        1E-9
              220E-6       2.199999E-3           40       20E+3       9.0E-3      5.0E-6        1E-9
              220E-6       2.199999E-3        20E+3       50E+3      23.0E-3      5.0E-6        1E-9
              220E-6       2.199999E-3        50E+3      100E+3      54.0E-3      6.0E-6        1E-9
              220E-6       2.199999E-3       100E+3      300E+3     120.0E-3     12.0E-6        1E-9
              220E-6       2.199999E-3       300E+3      500E+3     150.0E-3     25.0E-6        1E-9
              220E-6       2.199999E-3       500E+3        1E+6     310.0E-3     25.0E-6        1E-9
              220E-6       2.199999E-3         1E+6      1.2E+6           NA         NA         1E-9

              2.2E-3       21.99999E-3           10       19.99      27.0E-3      5.0E-6       10E-9
              2.2E-3       21.99999E-3           20       39.99      10.5E-3      5.0E-6       10E-9
              2.2E-3       21.99999E-3           40       20E+3       9.0E-3      5.0E-6       10E-9
              2.2E-3       21.99999E-3        20E+3       50E+3      23.0E-3      5.0E-6       10E-9
              2.2E-3       21.99999E-3        50E+3      100E+3      54.0E-3      6.0E-6       10E-9
              2.2E-3       21.99999E-3       100E+3      300E+3     120.0E-3     12.0E-6       10E-9
              2.2E-3       21.99999E-3       300E+3      500E+3     150.0E-3     25.0E-6       10E-9
              2.2E-3       21.99999E-3       500E+3        1E+6     310.0E-3     25.0E-6       10E-9
              2.2E-3       21.99999E-3         1E+6      1.2E+6           NA         NA        10E-9

Mode: Volts O Stability

# AC Voltage stability with external divider override up to 22 mV (is more accurate)

# Output (V)                           Frequency (Hz)             Tol (%)      Floor     Resolution
# ------------------------------------ ------------------------ ------------------------------------

              220E-6       2.199999E-3           10       19.99            0      5.0E-6        1E-9
              220E-6       2.199999E-3           20       39.99            0      5.0E-6        1E-9
              220E-6       2.199999E-3           40       20E+3            0      2.0E-6        1E-9
              220E-6       2.199999E-3        20E+3       50E+3            0      2.0E-6        1E-9
              220E-6       2.199999E-3        50E+3      100E+3            0      3.0E-6        1E-9
              220E-6       2.199999E-3       100E+3      300E+3            0      3.0E-6        1E-9
              220E-6       2.199999E-3       300E+3      500E+3            0      5.0E-6        1E-9
              220E-6       2.199999E-3       500E+3        1E+6            0      5.0E-6        1E-9
              220E-6       2.199999E-3         1E+6      1.2E+6           NA          NA        1E-9

              2.2E-3       21.99999E-3           10       19.99            0      5.0E-6       10E-9
              2.2E-3       21.99999E-3           20       39.99            0      5.0E-6       10E-9
              2.2E-3       21.99999E-3           40       20E+3            0      2.0E-6       10E-9
              2.2E-3       21.99999E-3        20E+3       50E+3            0      2.0E-6       10E-9
              2.2E-3       21.99999E-3        50E+3      100E+3            0      3.0E-6       10E-9
              2.2E-3       21.99999E-3       100E+3      300E+3            0      5.0E-6       10E-9
              2.2E-3       21.99999E-3       300E+3      500E+3            0     10.0E-6       10E-9
              2.2E-3       21.99999E-3       500E+3        1E+6            0     15.0E-6       10E-9
              2.2E-3       21.99999E-3         1E+6      1.2E+6           NA          NA       10E-9

Mode: Volts B1

# AC Voltage from 5725A Boost Voltage Amplifier
#
# Output (V)                           Frequency (Hz)             Tol (%)      Floor     Resolution
# ------------------------------------ ------------------------ ------------------------------------
                 220              1100           40        1E+3       8.0E-3        4E-3        1E-3
                 220              1100         1E+3       20E+3      12.5E-3        6E-3        1E-3
                 220              1100        20E+3       30E+3      36.0E-3       11E-3        1E-3
                 220               750        30E+3       50E+3      36.0E-3       11E-3        1E-3
                 220               750        50E+3      100E+3     130.0E-3       45E-3        1E-3

Mode: Volts W

# Wideband AC Voltage (Option -03) Specifications:
# Flatness Specifications are at 99% Confidence, 2.58 Sigma.
# Specifications apply to the end of the cable and 50 Ohm termination used for calibration.

# From 30 Hz to 500 kHz, includes absolute uncertainty only.  Outside of this
# frequency band, the Wideband Flatness Specification is added.
#
# Output (V)                           Frequency (Hz)             Tol (%)      Floor     Resolution
# ------------------------------------ ------------------------ ------------------------------------
              300E-6        1.09999E-3           10       29.99         0.80    400.0E-9       10E-9
              300E-6        1.09999E-3           30      500E+3         0.50    400.0E-9       10E-9
              300E-6        1.09999E-3       500E+3   1.1999E+6         0.70      3.4E-6       10E-9
              300E-6        1.09999E-3       1.2E+6        2E+6         0.70      3.4E-6       10E-9
              300E-6        1.09999E-3         2E+6     11.9E+6         0.90      3.4E-6       10E-9
              300E-6        1.09999E-3        12E+6       20E+6         1.10      3.4E-6       10E-9
              300E-6        1.09999E-3        20E+6       30E+6         2.00     15.4E-6       10E-9

              1.1E-3        3.29999E-3           10       29.99         0.75      1.0E-6       10E-9
              1.1E-3        3.29999E-3           30      500E+3         0.45      1.0E-6       10E-9
              1.1E-3        3.29999E-3       500E+3   1.1999E+6         0.55      4.0E-6       10E-9
              1.1E-3        3.29999E-3       1.2E+6        2E+6         0.55      4.0E-6       10E-9
              1.1E-3        3.29999E-3         2E+6     11.9E+6         0.75      4.0E-6       10E-9
              1.1E-3        3.29999E-3        12E+6       20E+6         0.95      4.0E-6       10E-9
              1.1E-3        3.29999E-3        20E+6       30E+6         1.95      4.0E-6       10E-9

              3.3E-3        10.9999E-3           10       29.99         0.65      4.0E-6      100E-9
              3.3E-3        10.9999E-3           30      500E+3         0.35      4.0E-6      100E-9
              3.3E-3        10.9999E-3       500E+3   1.1999E+6         0.45      7.0E-6      100E-9
              3.3E-3        10.9999E-3       1.2E+6        2E+6         0.45      7.0E-6      100E-9
              3.3E-3        10.9999E-3         2E+6     11.9E+6         0.55      7.0E-6      100E-9
              3.3E-3        10.9999E-3        12E+6       20E+6         0.75      7.0E-6      100E-9
              3.3E-3        10.9999E-3        20E+6       30E+6         1.35      7.0E-6      100E-9

               11E-3        32.9999E-3           10       29.99         0.60     10.0E-6      100E-9
               11E-3        32.9999E-3           30      500E+3         0.30     10.0E-6      100E-9
               11E-3        32.9999E-3       500E+3   1.1999E+6         0.40     13.0E-6      100E-9
               11E-3        16.4999E-3       1.2E+6        2E+6         0.50     13.0E-6      100E-9
               11E-3        32.9999E-3       1.2E+6        2E+6         0.40     13.0E-6      100E-9
               11E-3        32.9999E-3         2E+6     11.9E+6         0.50     13.0E-6      100E-9
               11E-3        32.9999E-3        12E+6       20E+6         0.70     13.0E-6      100E-9
               11E-3        32.9999E-3        20E+6       30E+6         1.30     13.0E-6      100E-9

               33E-3        109.999E-3           10       29.99         0.60     40.0E-6        1E-6
               33E-3        109.999E-3           30      500E+3         0.30     40.0E-6        1E-6
               33E-3        109.999E-3       500E+3   1.1999E+6         0.40     43.0E-6        1E-6
               33E-3         54.999E-3       1.2E+6        2E+6         0.50     43.0E-6        1E-6
               33E-3        109.999E-3       1.2E+6        2E+6         0.40     43.0E-6        1E-6
               33E-3        109.999E-3         2E+6     11.9E+6         0.50     43.0E-6        1E-6
               33E-3        109.999E-3        12E+6       20E+6         0.70     43.0E-6        1E-6
               33E-3        109.999E-3        20E+6       30E+6         1.30     43.0E-6        1E-6

              110E-3        329.999E-3           10       29.99         0.55    100.0E-6        1E-6
              110E-3        329.999E-3           30      500E+3         0.25    100.0E-6        1E-6
              110E-3        329.999E-3       500E+3   1.1999E+6         0.35    103.0E-6        1E-6
              110E-3        164.999E-3       1.2E+6        2E+6         0.45    103.0E-6        1E-6
              110E-3        329.999E-3       1.2E+6        2E+6         0.35    103.0E-6        1E-6
              110E-3        329.999E-3         2E+6     11.9E+6         0.45    103.0E-6        1E-6
              110E-3        329.999E-3        12E+6       20E+6         0.65    103.0E-6        1E-6
              110E-3        329.999E-3        20E+6       30E+6         1.25    103.0E-6        1E-6

                0.33           1.09999           10       29.99         0.55    400.0E-6       10E-6
                0.33           1.09999           30      500E+3         0.25    400.0E-6       10E-6
                0.33           1.09999       500E+3   1.1999E+6         0.35    403.0E-6       10E-6
                0.33           0.54999       1.2E+6        2E+6         0.45    403.0E-6       10E-6
                0.33           1.09999       1.2E+6        2E+6         0.35    403.0E-6       10E-6
                0.33           1.09999         2E+6     11.9E+6         0.45    403.0E-6       10E-6
                0.33           1.09999        12E+6       20E+6         0.65    403.0E-6       10E-6
                0.33           1.09999        20E+6       30E+6         1.25    403.0E-6       10E-6

                 1.1               3.5           10       29.99         0.50    500.0E-6       10E-6
                 1.1               3.5           30      500E+3         0.20    500.0E-6       10E-6
                 1.1               3.5       500E+3   1.1999E+6         0.30    503.0E-6       10E-6
                 1.1           1.74999       1.2E+6        2E+6         0.40    503.0E-6       10E-6
                 1.1               3.5       1.2E+6        2E+6         0.30    503.0E-6       10E-6
                 1.1               3.5         2E+6     11.9E+6         0.40    503.0E-6       10E-6
                 1.1               3.5        12E+6       20E+6         0.60    503.0E-6       10E-6
                 1.1               3.5        20E+6       30E+6         1.20    503.0E-6       10E-6

Mode: Volts W Flatness

# Flatness Specifications are at 99% Confidence, 2.58 Sigma.
#
# Output (V)                           Frequency (Hz)             Tol (%)      Floor     Resolution
# ------------------------------------ ------------------------ ------------------------------------
              300E-6        1.09999E-3           10       29.99         0.30           0       10E-9
              300E-6        1.09999E-3           30      119.99         0.10           0       10E-9
              300E-6        1.09999E-3          120   1.1999E+3         0.10           0       10E-9
              300E-6        1.09999E-3       1.2E+3   11.999E+3         0.10           0       10E-9
              300E-6        1.09999E-3      12.0E+3   119.99E+3         0.10           0       10E-9
              300E-6        1.09999E-3     120.0E+3   1.1999E+6         0.20        3E-6       10E-9
              300E-6        1.09999E-3       1.2E+6      2.0E+6         0.20        3E-6       10E-9
              300E-6        1.09999E-3       2.0E+6     11.9E+6         0.40        3E-6       10E-9
              300E-6        1.09999E-3      12.0E+6     20.0E+6         0.60        3E-6       10E-9
              300E-6        1.09999E-3      20.0E+6     30.0E+6         1.50       15E-6       10E-9

              1.1E-3        3.29999E-3           10       29.99         0.30           0       10E-9
              1.1E-3        3.29999E-3           30      119.99         0.10           0       10E-9
              1.1E-3        3.29999E-3          120   1.1999E+3         0.10           0       10E-9
              1.1E-3        3.29999E-3       1.2E+3   11.999E+3         0.10           0       10E-9
              1.1E-3        3.29999E-3      12.0E+3   119.99E+3         0.10           0       10E-9
              1.1E-3        3.29999E-3     120.0E+3   1.1999E+6         0.10        3E-6       10E-9
              1.1E-3        3.29999E-3       1.2E+6      2.0E+6         0.10        3E-6       10E-9
              1.1E-3        3.29999E-3       2.0E+6     11.9E+6         0.30        3E-6       10E-9
              1.1E-3        3.29999E-3      12.0E+6     20.0E+6         0.50        3E-6       10E-9
              1.1E-3        3.29999E-3      20.0E+6     30.0E+6         1.50        3E-6       10E-9

                3E-3        10.9999E-3           10       29.99         0.30           0      100E-9
                3E-3        10.9999E-3           30      119.99         0.10           0      100E-9
                3E-3        10.9999E-3          120   1.1999E+3         0.10           0      100E-9
                3E-3        10.9999E-3       1.2E+3   11.999E+3         0.10           0      100E-9
                3E-3        10.9999E-3      12.0E+3   119.99E+3         0.10           0      100E-9
                3E-3        10.9999E-3     120.0E+3   1.1999E+6         0.10        3E-6      100E-9
                3E-3        10.9999E-3       1.2E+6      2.0E+6         0.10        3E-6      100E-9
                3E-3        10.9999E-3       2.0E+6     11.9E+6         0.30        3E-6      100E-9
                3E-3        10.9999E-3      12.0E+6     20.0E+6         0.50        3E-6      100E-9
                3E-3        10.9999E-3      20.0E+6     30.0E+6         1.50        3E-6      100E-9

               11E-3        32.9999E-3           10       29.99         0.30           0      100E-9
               11E-3        32.9999E-3           30      119.99         0.10           0      100E-9
               11E-3        32.9999E-3          120   1.1999E+3         0.10           0      100E-9
               11E-3        32.9999E-3       1.2E+3   11.999E+3         0.10           0      100E-9
               11E-3        32.9999E-3      12.0E+3   119.99E+3         0.10           0      100E-9
               11E-3        32.9999E-3     120.0E+3   1.1999E+6         0.10        3E-6      100E-9
               11E-3        16.4999E-3       1.2E+6      2.0E+6         0.20        3E-6      100E-9
               11E-3        32.9999E-3       1.2E+6      2.0E+6         0.10        3E-6      100E-9
               11E-3        32.9999E-3       2.0E+6     11.9E+6         0.30        3E-6      100E-9
               11E-3        32.9999E-3      12.0E+6     20.0E+6         0.50        3E-6      100E-9
               11E-3        32.9999E-3      20.0E+6     30.0E+6         1.50        3E-6      100E-9

               33E-3        109.999E-3           10       29.99         0.30           0        1E-6
               33E-3        109.999E-3           30      119.99         0.10           0        1E-6
               33E-3        109.999E-3          120   1.1999E+3         0.10           0        1E-6
               33E-3        109.999E-3       1.2E+3   11.999E+3         0.10           0        1E-6
               33E-3        109.999E-3      12.0E+3   119.99E+3         0.10           0        1E-6
               33E-3        109.999E-3     120.0E+3   1.1999E+6         0.10        3E-6        1E-6
               33E-3         54.999E-3       1.2E+6      2.0E+6         0.20        3E-6        1E-6
               33E-3        109.999E-3       1.2E+6      2.0E+6         0.10        3E-6        1E-6
               33E-3        109.999E-3       2.0E+6     11.9E+6         0.30        3E-6        1E-6
               33E-3        109.999E-3      12.0E+6     20.0E+6         0.50        3E-6        1E-6
               33E-3        109.999E-3      20.0E+6     30.0E+6         1.50        3E-6        1E-6

              110E-3        329.999E-3           10       29.99         0.30           0        1E-6
              110E-3        329.999E-3           30      119.99         0.10           0        1E-6
              110E-3        329.999E-3          120   1.1999E+3         0.10           0        1E-6
              110E-3        329.999E-3       1.2E+3   11.999E+3         0.10           0        1E-6
              110E-3        329.999E-3      12.0E+3   119.99E+3         0.10           0        1E-6
              110E-3        329.999E-3     120.0E+3   1.1999E+6         0.10        3E-6        1E-6
              110E-3        164.999E-3       1.2E+6      2.0E+6         0.20        3E-6        1E-6
              110E-3        329.999E-3       1.2E+6      2.0E+6         0.10        3E-6        1E-6
              110E-3        329.999E-3       2.0E+6     11.9E+6         0.30        3E-6        1E-6
              110E-3        329.999E-3      12.0E+6     20.0E+6         0.50        3E-6        1E-6
              110E-3        329.999E-3      20.0E+6     30.0E+6         1.50        3E-6        1E-6

                0.33           1.09999           10       29.99         0.30           0       10E-6
                0.33           1.09999           30      119.99         0.10           0       10E-6
                0.33           1.09999          120   1.1999E+3         0.10           0       10E-6
                0.33           1.09999       1.2E+3   11.999E+3         0.10           0       10E-6
                0.33           1.09999      12.0E+3   119.99E+3         0.10           0       10E-6
                0.33           1.09999     120.0E+3   1.1999E+6         0.10        3E-6       10E-6
                0.33           0.54999       1.2E+6      2.0E+6         0.20        3E-6       10E-6
                0.33           1.09999       1.2E+6      2.0E+6         0.10        3E-6       10E-6
                0.33           1.09999       2.0E+6     11.9E+6         0.30        3E-6       10E-6
                0.33           1.09999      12.0E+6     20.0E+6         0.50        3E-6       10E-6
                0.33           1.09999      20.0E+6     30.0E+6         1.50        3E-6       10E-6

                 1.1               3.5           10       29.99         0.30           0       10E-6
                 1.1               3.5           30      119.99         0.10           0       10E-6
                 1.1               3.5          120   1.1999E+3         0.10           0       10E-6
                 1.1               3.5       1.2E+3   11.999E+3         0.10           0       10E-6
                 1.1               3.5      12.0E+3   119.99E+3         0.10           0       10E-6
                 1.1               3.5     120.0E+3   1.1999E+6         0.10        3E-6       10E-6
                 1.1           1.74999       1.2E+6      2.0E+6         0.20        3E-6       10E-6
                 1.1               3.5       1.2E+6      2.0E+6         0.10        3E-6       10E-6
                 1.1               3.5       2.0E+6     11.9E+6         0.30        3E-6       10E-6
                 1.1               3.5      12.0E+6     20.0E+6         0.50        3E-6       10E-6
                 1.1               3.5      20.0E+6     30.0E+6         1.50        3E-6       10E-6

# ============================================================================
# Current Specifications
#
# Added to DC Current uncertainty specifications:
# 220 mA range, > 100 mA output: +/- (200 x I^2) ppm
# 2.2 A range, > 1 A output: +/- (10 x I^2) ppm
#
# If more precise resolution of this adder is required, the procedure writer
# may use the MATH FSC's ACCVG function combined with the formula.  Example:
#   1.001  MATH         Acc = ACCVG("Fluke 5730A", "Amps", 100E-3)
#   1.002  MATH         Acc = (200 * 175E-3 ^ 2) + Acc

# Range Locked, Normal output terminals

# Output (A)                           MOD1 (not used)            Tol (%)      Floor     Resolution
# ------------------------------------ ------------------------ ------------------------------------

Mode: 220uA
        -219.9999E-6       219.9999E-6          NA          NA        4.2E-3      7.0E-9     100E-12

Mode: 2.2mA
        -2.199999E-3       2.199999E-3          NA          NA        3.5E-3      8.0E-9        1E-9

Mode: 22mA
        -21.99999E-3       21.99999E-3          NA          NA        3.5E-3     50.0E-9       10E-9

Mode: 220mA
        -100.0000E-3       100.0000E-3          NA          NA      4.500E-3    800.0E-9      100E-9
        -120.0000E-3       120.0000E-3          NA          NA      4.788E-3    800.0E-9      100E-9
        -140.0000E-3       140.0000E-3          NA          NA      4.892E-3    800.0E-9      100E-9
        -160.0000E-3       160.0000E-3          NA          NA      5.012E-3    800.0E-9      100E-9
        -180.0000E-3       180.0000E-3          NA          NA      5.148E-3    800.0E-9      100E-9
        -200.0000E-3       200.0000E-3          NA          NA      5.300E-3    800.0E-9      100E-9
        -219.9999E-3       219.9999E-3          NA          NA      5.468E-3    800.0E-9      100E-9

Mode: 2.2A
                -1.0               1.0          NA          NA      7.000E-3     15.0E-6        1E-6
                -1.2               1.2          NA          NA      8.440E-3     15.0E-6        1E-6
                -1.4               1.4          NA          NA      8.960E-3     15.0E-6        1E-6
                -1.6               1.6          NA          NA      9.560E-3     15.0E-6        1E-6
                -1.8               1.8          NA          NA     10.240E-3     15.0E-6        1E-6
                -2.0               2.0          NA          NA     11.000E-3     15.0E-6        1E-6
                -2.2               2.2          NA          NA     11.840E-3     15.0E-6        1E-6

# Autorange (DC & AC), Normal output terminals

Mode: Amps

# Output (A)                           MOD1 (not used)            Tol (%)      Floor     Resolution
# ------------------------------------ ------------------------ ------------------------------------
        -219.9999E-6       219.9999E-6          NA          NA        4.2E-3      7.0E-9     100E-12
        -2.199999E-3       2.199999E-3          NA          NA        3.5E-3      8.0E-9        1E-9
        -21.99999E-3       21.99999E-3          NA          NA        3.5E-3     50.0E-9       10E-9

        -100.0000E-3       100.0000E-3          NA          NA      4.500E-3    800.0E-9      100E-9
        -120.0000E-3       120.0000E-3          NA          NA      4.788E-3    800.0E-9      100E-9
        -140.0000E-3       140.0000E-3          NA          NA      4.892E-3    800.0E-9      100E-9
        -160.0000E-3       160.0000E-3          NA          NA      5.012E-3    800.0E-9      100E-9
        -180.0000E-3       180.0000E-3          NA          NA      5.148E-3    800.0E-9      100E-9
        -200.0000E-3       200.0000E-3          NA          NA      5.300E-3    800.0E-9      100E-9
        -219.9999E-3       219.9999E-3          NA          NA      5.468E-3    800.0E-9      100E-9

                -1.0               1.0          NA          NA      7.000E-3     15.0E-6        1E-6
                -1.2               1.2          NA          NA      8.440E-3     15.0E-6        1E-6
                -1.4               1.4          NA          NA      8.960E-3     15.0E-6        1E-6
                -1.6               1.6          NA          NA      9.560E-3     15.0E-6        1E-6
                -1.8               1.8          NA          NA     10.240E-3     15.0E-6        1E-6
                -2.0               2.0          NA          NA     11.000E-3     15.0E-6        1E-6
                -2.2               2.2          NA          NA     11.840E-3     15.0E-6        1E-6

# Output (A)                           Frequency (Hz)             Tol (%)      Floor     Resolution
# ------------------------------------ ------------------------ ------------------------------------
                9E-6        219.999E-6           10       19.99      28.0E-3     20.0E-9        1E-9
                9E-6        219.999E-6           20       39.99      18.0E-3     12.0E-9        1E-9
                9E-6        219.999E-6           40        1E+3      11.7E-3     10.0E-9        1E-9
                9E-6        219.999E-6         1E+3        5E+3      32.0E-3     15.0E-9        1E-9
                9E-6        219.999E-6         5E+3       10E+3     110.0E-3     80.0E-9        1E-9

              220E-6        2.19999E-3           10       19.99      28.0E-3     50.0E-9       10E-9
              220E-6        2.19999E-3           20       39.99      18.0E-3     40.0E-9       10E-9
              220E-6        2.19999E-3           40        1E+3      11.7E-3     40.0E-9       10E-9
              220E-6        2.19999E-3         1E+3        5E+3      22.0E-3    130.0E-9       10E-9
              220E-6        2.19999E-3         5E+3       10E+3     110.0E-3    800.0E-9       10E-9

              2.2E-3        21.9999E-3           10       19.99      28.0E-3    500.0E-9      100E-9
              2.2E-3        21.9999E-3           20       39.99      18.0E-3    400.0E-9      100E-9
              2.2E-3        21.9999E-3           40        1E+3      11.7E-3    400.0E-9      100E-9
              2.2E-3        21.9999E-3         1E+3        5E+3      22.0E-3    700.0E-9      100E-9
              2.2E-3        21.9999E-3         5E+3       10E+3     110.0E-3      6.0E-6      100E-9

               22E-3        219.999E-3           10       19.99      28.0E-3      5.0E-6        1E-6
               22E-3        219.999E-3           20       39.99      18.0E-3      4.0E-6        1E-6
               22E-3        219.999E-3           40        1E+3      11.7E-3      3.0E-6        1E-6
               22E-3        219.999E-3         1E+3        5E+3      22.0E-3      4.0E-6        1E-6
               22E-3        219.999E-3         5E+3       10E+3     110.0E-3     12.0E-6        1E-6

                0.22               2.2           10       19.99          NA          NA        10E-6
                0.22               2.2           20        1E+3      28.0E-3     40.0E-6       10E-6
                0.22               2.2         1E+3        5E+3      46.0E-3    100.0E-6       10E-6
                0.22               2.2         5E+3       10E+3     700.0E-3    200.0E-6       10E-6

Mode: Amps Stability

# Output (A)                           MOD1 (not used)            Tol (%)      Floor     Resolution
# ------------------------------------ ------------------------ ------------------------------------
        -219.9999E-6       219.9999E-6          NA          NA      500.0E-6      1.0E-9     100E-12
        -2.199999E-3       2.199999E-3          NA          NA      500.0E-6      5.0E-9        1E-9
        -21.99999E-3       21.99999E-3          NA          NA      500.0E-6     50.0E-9       10E-9
        -219.9999E-3       219.9999E-3          NA          NA      800.0E-6    300.0E-9      100E-9
                -2.2               2.2          NA          NA      900.0E-6      7.0E-6        1E-6

# Range Lock, AUX output terminals

# Output (A)                           MOD1 (not used)            Tol (%)      Floor     Resolution
# ------------------------------------ ------------------------ ------------------------------------

Mode: 220uA C2
        -219.9999E-6       219.9999E-6          NA          NA        4.2E-3      7.0E-9     100E-12

Mode: 2.2mA C2
        -2.199999E-3       2.199999E-3          NA          NA        3.5E-3      8.0E-9        1E-9

Mode: 22mA C2
        -21.99999E-3       21.99999E-3          NA          NA        3.5E-3     50.0E-9       10E-9

Mode: 220mA C2
        -100.0000E-3       100.0000E-3          NA          NA      4.500E-3    800.0E-9      100E-9
        -120.0000E-3       120.0000E-3          NA          NA      4.788E-3    800.0E-9      100E-9
        -140.0000E-3       140.0000E-3          NA          NA      4.892E-3    800.0E-9      100E-9
        -160.0000E-3       160.0000E-3          NA          NA      5.012E-3    800.0E-9      100E-9
        -180.0000E-3       180.0000E-3          NA          NA      5.148E-3    800.0E-9      100E-9
        -200.0000E-3       200.0000E-3          NA          NA      5.300E-3    800.0E-9      100E-9
        -219.9999E-3       219.9999E-3          NA          NA      5.468E-3    800.0E-9      100E-9

Mode: 2.2A C2
                -1.0               1.0          NA          NA       7.00E-3     15.0E-6        1E-6
                -1.2               1.2          NA          NA       8.44E-3     15.0E-6        1E-6
                -1.4               1.4          NA          NA       8.96E-3     15.0E-6        1E-6
                -1.6               1.6          NA          NA       9.56E-3     15.0E-6        1E-6
                -1.8               1.8          NA          NA      10.24E-3     15.0E-6        1E-6
                -2.0               2.0          NA          NA      11.00E-3     15.0E-6        1E-6
                -2.2               2.2          NA          NA      11.84E-3     15.0E-6        1E-6

# Autorange (DC & AC), AUX output terminals

Mode: Amps C2

# Output (A)                           MOD1 (not used)            Tol (%)      Floor     Resolution
# ------------------------------------ ------------------------ ------------------------------------
        -219.9999E-6       219.9999E-6          NA          NA        4.2E-3      7.0E-9     100E-12
        -2.199999E-3       2.199999E-3          NA          NA        3.5E-3      8.0E-9        1E-9
        -21.99999E-3       21.99999E-3          NA          NA        3.5E-3     50.0E-9       10E-9

        -100.0000E-3       100.0000E-3          NA          NA      4.500E-3    800.0E-9      100E-9
        -120.0000E-3       120.0000E-3          NA          NA      4.788E-3    800.0E-9      100E-9
        -140.0000E-3       140.0000E-3          NA          NA      4.892E-3    800.0E-9      100E-9
        -160.0000E-3       160.0000E-3          NA          NA      5.012E-3    800.0E-9      100E-9
        -180.0000E-3       180.0000E-3          NA          NA      5.148E-3    800.0E-9      100E-9
        -200.0000E-3       200.0000E-3          NA          NA      5.300E-3    800.0E-9      100E-9
        -219.9999E-3       219.9999E-3          NA          NA      5.468E-3    800.0E-9      100E-9

                -1.0               1.0          NA          NA       7.00E-3     15.0E-6        1E-6
                -1.2               1.2          NA          NA       8.44E-3     15.0E-6        1E-6
                -1.4               1.4          NA          NA       8.96E-3     15.0E-6        1E-6
                -1.6               1.6          NA          NA       9.56E-3     15.0E-6        1E-6
                -1.8               1.8          NA          NA      10.24E-3     15.0E-6        1E-6
                -2.0               2.0          NA          NA      11.00E-3     15.0E-6        1E-6
                -2.2               2.2          NA          NA      11.84E-3     15.0E-6        1E-6

# Output (A)                           Frequency (Hz)             Tol (%)      Floor     Resolution
# ------------------------------------ ------------------------ ------------------------------------
                9E-6        219.999E-6           10       19.99      28.0E-3     20.0E-9        1E-9
                9E-6        219.999E-6           20       39.99      18.0E-3     12.0E-9        1E-9
                9E-6        219.999E-6           40        1E+3      11.7E-3     10.0E-9        1E-9
                9E-6        219.999E-6         1E+3        5E+3      32.0E-3     15.0E-9        1E-9
                9E-6        219.999E-6         5E+3       10E+3     110.0E-3     80.0E-9        1E-9

              220E-6        2.19999E-3           10       19.99      28.0E-3     50.0E-9       10E-9
              220E-6        2.19999E-3           20       39.99      18.0E-3     40.0E-9       10E-9
              220E-6        2.19999E-3           40        1E+3      11.7E-3     40.0E-9       10E-9
              220E-6        2.19999E-3         1E+3        5E+3      22.0E-3    130.0E-9       10E-9
              220E-6        2.19999E-3         5E+3       10E+3     110.0E-3    800.0E-9       10E-9

              2.2E-3        21.9999E-3           10       19.99      28.0E-3    500.0E-9      100E-9
              2.2E-3        21.9999E-3           20       39.99      18.0E-3    400.0E-9      100E-9
              2.2E-3        21.9999E-3           40        1E+3      11.7E-3    400.0E-9      100E-9
              2.2E-3        21.9999E-3         1E+3        5E+3      22.0E-3    700.0E-9      100E-9
              2.2E-3        21.9999E-3         5E+3       10E+3     110.0E-3      6.0E-6      100E-9

               22E-3        219.999E-3           10       19.99      28.0E-3      5.0E-6        1E-6
               22E-3        219.999E-3           20       39.99      18.0E-3      4.0E-6        1E-6
               22E-3        219.999E-3           40        1E+3      11.7E-3      3.0E-6        1E-6
               22E-3        219.999E-3         1E+3        5E+3      22.0E-3      4.0E-6        1E-6
               22E-3        219.999E-3         5E+3       10E+3     110.0E-3     12.0E-6        1E-6

                0.22               2.2           10       19.99          NA          NA        10E-6
                0.22               2.2           20        1E+3      28.0E-3     40.0E-6       10E-6
                0.22               2.2         1E+3        5E+3      46.0E-3    100.0E-6       10E-6
                0.22               2.2         5E+3       10E+3     700.0E-3    200.0E-6       10E-6

Mode: Amps C2 Stability

# Output (A)                           MOD1 (not used)            Tol (%)      Floor     Resolution
# ------------------------------------ ------------------------ ------------------------------------
        -219.9999E-6       219.9999E-6          NA          NA      500.0E-6      1.0E-9     100E-12
        -2.199999E-3       2.199999E-3          NA          NA      500.0E-6      5.0E-9        1E-9
        -21.99999E-3       21.99999E-3          NA          NA      500.0E-6     50.0E-9       10E-9
        -219.9999E-3       219.9999E-3          NA          NA      800.0E-6    300.0E-9      100E-9
                -2.2               2.2          NA          NA      900.0E-6      7.0E-6        1E-6

# Range Lock, 5725A output terminals
# For 220 uA and 2.2 mA ranges, uncertainties are increased by a factor of 1.3.

# Output (A)                           MOD1 (not used)            Tol (%)      Floor     Resolution
# ------------------------------------ ------------------------ ------------------------------------

Mode: 220uA C3
        -219.9999E-6       219.9999E-6          NA          NA       5.46E-3      9.1E-9     100E-12

Mode: 2.2mA C3
        -2.199999E-3       2.199999E-3          NA          NA       4.55E-3     10.4E-9        1E-9

Mode: 22mA C3
        -21.99999E-3       21.99999E-3          NA          NA       3.50E-3     50.0E-9       10E-9

Mode: 220mA C3
        -100.0000E-3       100.0000E-3          NA          NA      4.500E-3    800.0E-9      100E-9
        -120.0000E-3       120.0000E-3          NA          NA      4.788E-3    800.0E-9      100E-9
        -140.0000E-3       140.0000E-3          NA          NA      4.892E-3    800.0E-9      100E-9
        -160.0000E-3       160.0000E-3          NA          NA      5.012E-3    800.0E-9      100E-9
        -180.0000E-3       180.0000E-3          NA          NA      5.148E-3    800.0E-9      100E-9
        -200.0000E-3       200.0000E-3          NA          NA      5.300E-3    800.0E-9      100E-9
        -219.9999E-3       219.9999E-3          NA          NA      5.468E-3    800.0E-9      100E-9

Mode: 2.2A C3
                -1.0               1.0          NA          NA       7.00E-3     15.0E-6        1E-6
                -1.2               1.2          NA          NA       8.44E-3     15.0E-6        1E-6
                -1.4               1.4          NA          NA       8.96E-3     15.0E-6        1E-6
                -1.6               1.6          NA          NA       9.56E-3     15.0E-6        1E-6
                -1.8               1.8          NA          NA      10.24E-3     15.0E-6        1E-6
                -2.0               2.0          NA          NA      11.00E-3     15.0E-6        1E-6
                -2.2               2.2          NA          NA      11.84E-3     15.0E-6        1E-6

# Autorange (DC & AC), 5725A output terminals
# For 220 uA and 2.2 mA DC ranges, uncertainties are increased by a factor of 1.3.
# For 220 uA and 2.2 mA AC ranges, uncertainties are increased by a factor of 1.3 + 2 uA.

Mode: Amps C3

# Output (A)                           MOD1 (not used)            Tol (%)      Floor     Resolution
# ------------------------------------ ------------------------ ------------------------------------
        -219.9999E-6       219.9999E-6          NA          NA       5.46E-3      9.1E-9     100E-12
        -2.199999E-3       2.199999E-3          NA          NA       4.55E-3     10.4E-9        1E-9
        -21.99999E-3       21.99999E-3          NA          NA       3.50E-3     50.0E-9       10E-9

        -100.0000E-3       100.0000E-3          NA          NA      4.500E-3    800.0E-9      100E-9
        -120.0000E-3       120.0000E-3          NA          NA      4.788E-3    800.0E-9      100E-9
        -140.0000E-3       140.0000E-3          NA          NA      4.892E-3    800.0E-9      100E-9
        -160.0000E-3       160.0000E-3          NA          NA      5.012E-3    800.0E-9      100E-9
        -180.0000E-3       180.0000E-3          NA          NA      5.148E-3    800.0E-9      100E-9
        -200.0000E-3       200.0000E-3          NA          NA      5.300E-3    800.0E-9      100E-9
        -219.9999E-3       219.9999E-3          NA          NA      5.468E-3    800.0E-9      100E-9

                -1.0               1.0          NA          NA       7.00E-3     15.0E-6        1E-6
                -1.2               1.2          NA          NA       8.44E-3     15.0E-6        1E-6
                -1.4               1.4          NA          NA       8.96E-3     15.0E-6        1E-6
                -1.6               1.6          NA          NA       9.56E-3     15.0E-6        1E-6
                -1.8               1.8          NA          NA      10.24E-3     15.0E-6        1E-6
                -2.0               2.0          NA          NA      11.00E-3     15.0E-6        1E-6
                -2.2               2.2          NA          NA      11.84E-3     15.0E-6        1E-6

# Output (A)                           Frequency (Hz)             Tol (%)      Floor     Resolution
# ------------------------------------ ------------------------ ------------------------------------
                9E-6        219.999E-6           10       19.99     36.40E-3   2.0260E-6        1E-9
                9E-6        219.999E-6           20       39.99     23.40E-3   2.0156E-6        1E-9
                9E-6        219.999E-6           40        1E+3     15.21E-3   2.0130E-6        1E-9
                9E-6        219.999E-6         1E+3        5E+3     41.60E-3   2.0195E-6        1E-9
                9E-6        219.999E-6         5E+3       10E+3    143.00E-3   2.1040E-6        1E-9

              220E-6        2.19999E-3           10       19.99     36.40E-3   2.0650E-6       10E-9
              220E-6        2.19999E-3           20       39.99     23.40E-3   2.0520E-6       10E-9
              220E-6        2.19999E-3           40        1E+3     15.21E-3   2.0520E-6       10E-9
              220E-6        2.19999E-3         1E+3        5E+3     28.60E-3   2.1690E-6       10E-9
              220E-6        2.19999E-3         5E+3       10E+3    143.00E-3   3.0400E-6       10E-9

              2.2E-3        21.9999E-3           10       19.99     28.00E-3    500.0E-9      100E-9
              2.2E-3        21.9999E-3           20       39.99     18.00E-3    400.0E-9      100E-9
              2.2E-3        21.9999E-3           40        1E+3     11.70E-3    400.0E-9      100E-9
              2.2E-3        21.9999E-3         1E+3        5E+3     22.00E-3    700.0E-9      100E-9
              2.2E-3        21.9999E-3         5E+3       10E+3    110.00E-3      6.0E-6      100E-9

               22E-3        219.999E-3           10       19.99     28.00E-3      5.0E-6        1E-6
               22E-3        219.999E-3           20       39.99     18.00E-3      4.0E-6        1E-6
               22E-3        219.999E-3           40        1E+3     11.70E-3      3.0E-6        1E-6
               22E-3        219.999E-3         1E+3        5E+3     22.00E-3      4.0E-6        1E-6
               22E-3        219.999E-3         5E+3       10E+3    110.00E-3     12.0E-6        1E-6

                0.22               2.2           10       19.99          NA          NA        10E-6
                0.22               2.2           20        1E+3     28.00E-3     40.0E-6       10E-6
                0.22               2.2         1E+3        5E+3     46.00E-3    100.0E-6       10E-6
                0.22               2.2         5E+3       10E+3    700.00E-3    200.0E-6       10E-6

Mode: Amps B1

# DC & AC Current, from 5725A Boost Current Amplifier
#
# Output (A)                           Frequency (Hz)             Tol (%)      Floor     Resolution
# ------------------------------------ ------------------------ ------------------------------------
                 -11                11          NA          NA       34.0E-3    480.0E-6       10E-6

                   1                11           40        1E+3      40.0E-3    170.0E-6      100E-6
                   1                11         1E+3        5E+3      85.0E-3    380.0E-6      100E-6
                   1                11         5E+3       10E+3     330.0E-3    750.0E-6      100E-6

Mode: Amps B1 Stability

# Output (A)                           MOD1 (not used)            Tol (%)      Floor     Resolution
# ------------------------------------ ------------------------ ------------------------------------
                 -11                11          NA          NA        2.5E-3    100.0E-6       10E-6

# ============================================================================
# Resistance Specifications
# Ranges represent maximum difference of characterized to nominal value.

# 2-wire mode.
Mode: Ohms 2W

# Output (Ohms)                        MOD1 (not used)            Tol (%)      Floor     Resolution
# ------------------------------------ ------------------------ ------------------------------------
                   0       19.00285E+3          NA          NA           NA          NA          NA
        99.985000E+3     100.015000E+3          NA          NA     800.00E-6           0         NA
       189.971500E+3     190.028500E+3          NA          NA       1.00E-3           0         NA
       999.800000E+3       1.000200E+6          NA          NA       1.40E-3           0         NA
         1.899620E+6       1.900380E+6          NA          NA       1.70E-3           0         NA
         9.997000E+6      10.003000E+6          NA          NA       3.70E-3           0         NA
        18.994300E+6      19.005700E+6          NA          NA       4.70E-3           0         NA
          99.9500E+6       100.0500E+6          NA          NA      11.00E-3           0         NA

# 4-wire mode.
Mode: Ohms 4W

# Output (Ohms)                        MOD1 (not used)            Tol (%)      Floor     Resolution
# ------------------------------------ ------------------------ ------------------------------------
                   0                 0          NA          NA             0       50E-6         NA
             0.99950           1.00050          NA          NA       9.50E-3           0         NA
             1.89905           1.90095          NA          NA       9.50E-3           0         NA
             9.99700          10.00300          NA          NA       2.50E-3           0         NA
            18.99430          19.00570          NA          NA       2.50E-3           0         NA
            99.98500         100.01500          NA          NA       1.10E-3           0         NA
           189.97150         190.02850          NA          NA       1.10E-3           0         NA
           999.85000       1.000150E+3          NA          NA     720.00E-6           0         NA
         1.899715E+3       1.900285E+3          NA          NA     720.00E-6           0         NA
         9.998500E+3      10.001500E+3          NA          NA     700.00E-6           0         NA
        18.997150E+3      19.002850E+3          NA          NA     700.00E-6           0         NA
        99.985000E+3     100.015000E+3          NA          NA     800.00E-6           0         NA
       189.971500E+3     190.028500E+3          NA          NA       1.00E-3           0         NA
       999.800000E+3       1.000200E+6          NA          NA       1.40E-3           0         NA
         1.899620E+6       1.900380E+6          NA          NA       1.70E-3           0         NA
         9.997000E+6      10.003000E+6          NA          NA       3.70E-3           0         NA
        18.994300E+6      19.005700E+6          NA          NA       4.70E-3           0         NA

# 2-wire compensation mode at the 5730A.
Mode: Ohms RW

# Output (Ohms)                        MOD1 (not used)            Tol (%)      Floor     Resolution
# ------------------------------------ ------------------------ ------------------------------------
                   0                 0          NA          NA             0     2.05E-3         NA
             0.99950           1.00050          NA          NA       9.50E-3        2E-3         NA
             1.89905           1.90095          NA          NA       9.50E-3        2E-3         NA
             9.99700          10.00300          NA          NA       2.50E-3        2E-3         NA
            18.99430          19.00570          NA          NA       2.50E-3        2E-3         NA
            99.98500         100.01500          NA          NA       1.10E-3        2E-3         NA
           189.97150         190.02850          NA          NA       1.10E-3        2E-3         NA
           999.85000       1.000150E+3          NA          NA     720.00E-6       10E-3         NA
         1.899715E+3       1.900285E+3          NA          NA     720.00E-6       10E-3         NA
         9.998500E+3      10.001500E+3          NA          NA     700.00E-6       50E-3         NA
        18.997150E+3      19.002850E+3          NA          NA     700.00E-6      100E-3         NA

# 2-wire compensation mode at the UUT (source and sense wiring).
Mode: Ohms CW

# Output (Ohms)                        MOD1 (not used)            Tol (%)      Floor     Resolution
# ------------------------------------ ------------------------ ------------------------------------
                   0                 0          NA          NA             0     2.05E-3         NA
             0.99950           1.00050          NA          NA       9.50E-3        2E-3         NA
             1.89905           1.90095          NA          NA       9.50E-3        2E-3         NA
             9.99700          10.00300          NA          NA       2.50E-3        2E-3         NA
            18.99430          19.00570          NA          NA       2.50E-3        2E-3         NA
            99.98500         100.01500          NA          NA       1.10E-3        2E-3         NA
           189.97150         190.02850          NA          NA       1.10E-3        2E-3         NA
           999.85000       1.000150E+3          NA          NA     720.00E-6       10E-3         NA
         1.899715E+3       1.900285E+3          NA          NA     720.00E-6       10E-3         NA
         9.998500E+3      10.001500E+3          NA          NA     700.00E-6       50E-3         NA
        18.997150E+3      19.002850E+3          NA          NA     700.00E-6      100E-3         NA
